GISP2 Electrical Conductivity Measurements

REFERENCES: 

Taylor, K.C., R.B. Alley, G.W. Lamorey, and P.A. Mayewski. 1997. Electrical
measurements on the Greenland Ice Sheet Project 2 core. Journal of
Geophysical Research 102:26511-26517.

Taylor, K.C., P.A. Mayewski, M.S. Twickler, and S.I. Whitlow. 1996. Biomass
burning recorded in the GISP2 ice core: A record from eastern Canada? The
Holocene 6(1):1-6.

Chylek, P., B. Johnson, P.A. Damiano, K.C. Taylor, and P. Clement. 1995.
Biomass burning record and black carbon in the GISP2 ice core. Geophysical
Research Letters 22:89-92.

Taylor, K.C., G.W. Lamorey, G.A. Doyle, R.B. Alley, P.M. Grootes, P.A.
Mayewski, J.W.C. White, and L.K. Barlow. 1993. The 'flickering switch' of
late Pleistocene climate change. Nature 361:432-436.

Taylor, K.C., R.B. Alley, R.J. Fiacco, P.M. Grootes, G.W. Lamorey, P.A.
Mayewski, and M.J. Spencer. 1992. Ice core dating and chemistry by direct
current electrical conductivity. Journal of Glaciology 38:325-332.

DATA DESCRIPTION: 

The ECM file ECMage.dat represents 0.5 meter averages of the data in the
b****.dat and d****.dat files.  The GISP2 B core was used for the first
100 meters; the D core thereafter.  All depths are D core depths, ages are
on the Meese/Sowers timescale.  See ECMinfo.txt and depthage.dat for
further information. 

DATA: 

Depth	ECM	Age
Top (m)	microamps	Top (yr BP 1950)
		
4.11	11.244	-33.8
4.61	14.89	-33.1
5.14	9.178	-32.1
5.7	10.199	-30.7
6.24	17.752	-29.7
6.78	15.005	-28.6
7.31	13.901	-27.5
7.83	14.421	-26.7
8.35	13.164	-25.8
8.89	13.113	-24.7
9.42	12.141	-23.3
9.96	17.25	-21.9
10.5	16.056	-20.8
11.03	16.605	-19.6
11.55	15.85	-18.4
12.08	17.244	-17.1
12.6	15.578	-15.9
13.12	16.534	-14.4
13.65	16.79	-13.2
14.18	14.809	-12.0
14.71	17.788	-10.7
15.23	16.951	-9.4
15.75	17.238	-8.2
16.28	17.537	-7.0
16.81	18.684	-5.7
17.34	18.06	-4.4
17.86	17.964	-3.4
18.39	18.961	-2.2
18.92	17.418	-1.0
19.45	12.986	0.8
19.98	19.794	2.2
20.52	17.879	3.3
21.07	17.475	4.9
21.61	19.546	6.1
22.13	21.843	7.3
22.66	18.275	8.5
23.18	20.154	9.7
23.71	18.419	11.1
24.23	20.288	12.4
24.75	22.039	14.2
25.26	17.949	15.5
25.77	18.95	16.7
26.31	18.864	18.2
26.87	20.674	19.7
27.42	21.969	21.0
27.96	27.102	22.4
28.49	23.28	24.2
29.03	25.014	25.9
29.58	22.885	27.7
30.13	19.279	29.3
30.67	20.607	31.0
31.23	24.39	32.8
31.8	22.754	34.3
32.34	24.148	35.6
32.87	30.588	37.1
33.42	21.715	38.6
33.97	17.989	40.2
34.5	21.761	41.6
35.02	21.921	43.2
35.55	22.175	45.2
36.09	20.413	46.9
36.65	20.769	49.4
37.2	18.914	50.8
37.74	21.062	52.5
38.26	20.178	54.2
38.79	16.144	55.8
39.32	21.144	57.4
39.85	20.912	58.9
40.39	16.24	60.5
40.96	19.275	62.0
41.53	18.371	63.6
42.06	26.537	65.2
42.61	22.795	66.7
43.17	19.302	68.9
43.72	19.052	70.6
44.25	16.28	71.9
44.79	15.964	73.4
45.32	16.829	75.4
45.86	19.075	76.9
46.41	17.495	78.5
46.96	14.68	80.3
47.51	13.346	82.3
48.05	17.861	84.3
48.58	15.28	86.1
49.15	17.264	87.9
49.72	16.994	89.9
50.26	18.67	91.4
50.81	22.06	93.4
51.39	19.165	95.1
51.96	17.432	96.7
52.52	17.1	98.6
53.06	15.442	100.4
53.62	16.584	102.3
54.17	18.188	104.0
54.74	16.692	106.5
55.31	16.132	108.4
55.87	17.78	110.6
56.44	16.425	112.5
57.01	23.709	114.3
57.57	19.492	116.5
58.13	21.905	118.2
58.66	18.114	119.7
59.21	20.703	121.0
59.77	20.784	122.5
60.32	21.703	124.5
60.88	28.29	126.4
61.46	26.412	128.6
62.05	24.816	130.6
62.63	30.269	132.8
63.2	27.265	135.4
63.78	30.037	137.8
64.35	29.693	139.6
64.93	18.292	141.4
65.51	25.789	143.3
66.07	29.992	145.4
66.63	26.793	147.1
67.2	25.906	149.3
67.77	27.328	151.7
68.33	28.993	153.3
68.88	24.395	155.1
69.46	20.042	157.3
70.03	24.878	159.5
70.58	28.935	161.7
71.17	23.161	164.1
71.76	45.599	165.6
72.31	28.995	167.5
72.85	29.402	169.8
73.37	32.737	171.8
73.9	28.271	174.0
74.43	26.006	176.1
74.97	27.004	177.8
75.56	31.29	180.3
76.17	34.527	182.5
76.79	30.078	185.6
77.43	35.613	187.8
78.05	25.952	190.4
78.64	23.597	192.0
79.26	32.211	194.6
79.91	25.082	196.8
80.52	29.529	199.3
81.17	27.975	201.1
81.78	28.017	203.1
82.34	30.147	205.8
82.95	26.157	208.2
83.58	25.002	211.1
84.18	32.171	213.5
84.76	30.665	215.4
85.35	31.187	217.6
85.95	40.171	219.7
86.54	39.936	221.8
87.15	34.574	224.1
87.77	34.204	226.6
88.36	33.207	228.5
88.94	35.075	230.7
89.53	33.662	233.2
90.15	35.392	235.9
90.8	29.83	238.3
91.45	33.899	240.9
92.11	27.901	243.7
92.77	18.188	246.5
93.37	27.289	249.4
93.98	27.997	251.4
94.55	35.59	253.3
95.12	42.411	255.1
95.72	35.517	257.7
96.31	34.237	259.8
96.92	28.271	261.9
97.59	31.794	264.7
98.25	30.964	266.9
98.87	31.24	269.3
99.47	24.342	271.5
100.24	37.907	274.2
101.25	14.0752	278.3
102.21	17.9514	282.0
102.75	14.2412	283.8
103.3	15.5106	287.0
103.89	17.4024	289.5
104.44	16.7	291.8
104.98	13.2782	293.6
105.53	15.9384	295.7
106.1	14.694	298.0
106.65	14.2864	300.3
107.2	13.1844	302.3
107.8	14.0034	304.3
108.35	16.7708	306.8
108.9	20.4744	309.0
109.47	14.1326	311.6
110.02	12.1354	313.4
110.6	12.4274	315.0
111.16	11.2408	317.5
111.71	12.1656	319.5
112.25	13.4634	321.3
112.8	15.2246	323.7
113.35	14.3672	326.4
113.9	13.755	328.3
114.5	14.926	330.7
115.09	16.6358	333.0
115.64	14.859	334.8
116.19	15.2486	337.0
116.76	15.9492	339.3
117.47	16.8238	342.7
118.25	20.9246	346.2
118.89	15.4436	348.5
119.46	19.8294	350.9
120.02	17.7896	353.1
120.59	14.3244	355.5
121.14	18.784	358.5
121.7	15.8988	360.3
122.25	18.172	362.2
122.8	16.0224	364.0
123.36	15.116	366.6
123.91	23.202	368.6
124.46	27.8364	371.2
125.01	27.2874	372.8
125.58	21.1812	375.4
126.14	12.9056	377.7
126.71	20.0728	380.4
127.3	16.5902	382.7
127.86	19.6702	385.3
128.41	16.2052	387.7
129	13.7764	390.5
129.8	18.5354	394.5
130.59	17.3	397.6
131.16	15.105	399.9
131.75	12.2252	402.3
132.33	11.6394	404.8
132.88	10.9604	406.9
133.43	12.2584	409.1
134	14.8704	411.3
134.57	9.4006	413.6
135.13	9.9296	416.1
135.71	11.8178	418.1
136.26	16.7232	420.3
136.81	21.3622	422.6
137.38	12.843	424.9
137.93	11.5282	427.2
138.48	13.2662	429.9
139.04	11.635	432.8
139.61	12.2492	435.6
140.17	9.6438	437.9
140.72	12.426	439.7
141.27	13.2366	442.2
141.82	12.4324	444.6
142.37	13.7142	446.9
142.92	14.2238	448.7
143.5	17.8794	451.0
144.1	19.8648	453.5
144.66	19.7994	456.6
145.21	22.8534	458.4
145.78	23.1714	460.4
146.33	25.4586	463.1
146.88	19.1552	465.3
147.46	19.4358	467.9
148.03	20.2466	470.3
148.58	23.267	472.9
149.15	17.8396	475.8
149.75	13.7842	478.5
150.33	16.7428	482.3
150.89	13.0274	485.0
151.44	11.1258	487.4
152	21.5796	489.7
152.56	22.7936	491.8
153.11	18.0188	493.7
153.67	19.6978	496.4
154.22	20.9016	498.7
154.8	12.3498	501.7
155.35	10.3708	503.8
155.9	17.3076	506.0
156.46	18.3234	508.9
157.01	19.6306	510.7
157.59	20.622	513.6
158.14	20.465	515.8
158.7	19.577	518.0
159.26	25.4128	520.2
159.81	17.6432	522.1
160.36	19.2298	524.5
160.91	19.2436	526.6
161.46	22.4348	528.9
162.01	15.9098	531.1
162.56	18.403	533.2
163.11	20.9914	535.6
163.68	20.3236	537.9
164.23	21.3032	540.1
164.78	19.433	542.4
165.35	18.6646	545.3
165.92	14.784	547.6
166.47	11.7498	550.2
167.02	11.4666	552.1
167.64	12.5224	555.1
168.29	11.685	557.5
168.89	14.9892	559.3
169.48	18.4376	561.9
170.07	21.0558	564.7
170.63	24.4202	567.1
171.18	19.974	569.6
171.73	24.3714	571.7
172.28	26.76	573.6
172.83	30.213	575.8
173.38	30.1696	578.4
173.93	20.8262	580.8
174.49	21.0098	583.3
175.06	22.259	585.2
175.62	24.0684	587.4
176.17	24.0102	589.9
176.72	16.9462	592.6
177.27	18.082	594.9
177.82	19.0368	597.1
178.39	16.818	599.5
178.94	21.02	602.2
179.49	26.334	604.3
180.05	24.5704	606.5
180.61	24.378	609.0
181.19	23.2056	611.5
181.77	23.6656	613.9
182.33	16.3312	616.1
182.89	22.3078	618.9
183.44	21.4218	621.2
184	21.628	623.3
184.57	17.8324	625.9
185.12	14.83	628.1
185.67	19.0376	630.9
186.22	19.378	633.1
186.78	18.9734	635.4
187.34	18.166	637.8
187.96	14.9746	640.5
188.56	16.9166	643.3
189.13	20.8702	645.4
189.75	23.073	648.3
190.33	21.6332	651.1
190.89	24.6068	653.3
191.44	21.1708	655.7
192	24.861	658.5
192.56	24.6306	660.7
193.11	28.221	663.4
193.66	24.4412	665.3
194.23	18.4876	668.0
194.82	22.8898	670.5
195.39	24.763	673.0
195.99	23.6174	675.6
196.55	28.2612	677.8
197.1	27.3872	680.1
197.65	26.6096	682.7
198.2	26.2012	685.3
198.75	24.2302	687.6
199.3	28.8192	690.2
199.89	33.4082	692.7
200.45	23.5894	695.2
201.01	23.675	698.4
201.56	21.3646	700.8
202.11	22.174	703.2
202.66	26.8724	705.6
203.22	23.41	707.7
203.81	23.9192	710.2
204.36	24.6236	712.8
204.91	25.8056	715.4
205.46	23.9766	717.7
206.01	28.869	720.1
206.59	23.0462	722.7
207.14	20.3668	725.4
207.7	25.1752	728.1
208.27	23.272	731.4
208.85	21.0164	734.0
209.44	23.3682	736.3
210.01	13.005	738.8
210.56	9.9026	742.8
211.11	15.5186	745.0
211.68	27.2312	747.6
212.24	29.5634	749.8
212.81	35.3464	752.6
213.39	27.823	755.3
213.94	27.6312	758.1
214.49	21.3268	760.4
215.05	19.466	763.0
215.61	24.8704	765.5
216.16	26.0906	768.1
216.71	30.4316	770.7
217.26	28.905	773.1
217.81	22.6294	775.9
218.36	20.93	778.9
218.91	25.7718	781.0
219.48	29.4632	783.8
220.09	23.4982	787.0
220.72	20.7018	789.7
221.31	24.3934	792.2
221.86	23.896	794.3
222.41	23.7844	796.9
223	22.3216	799.6
223.55	23.277	801.9
224.13	26.4068	804.3
224.73	24.599	806.9
225.28	25.1234	808.9
225.83	25.1904	811.2
226.39	27.4482	813.5
226.98	26.2394	815.7
227.55	22.677	818.2
228.11	25.9414	820.4
228.67	21.1678	822.7
229.22	26.2332	825.2
229.8	25.5206	827.8
230.35	22.1814	830.7
230.89	22.4468	833.3
231.44	21.7708	835.2
232	28.6754	837.5
232.55	27.8164	839.5
233.1	27.2796	841.9
233.65	40.2752	844.2
234.2	25.376	846.7
234.77	25.2772	849.1
235.33	27.185	851.5
235.91	28.3696	854.2
236.46	24.0566	856.1
237.01	17.0734	857.9
238.8	21.1374	866.3
240.58	23.7518	874.9
241.15	20.4704	878.3
241.72	24.4032	880.8
242.27	26.9874	883.4
242.82	21.5708	885.6
243.37	26.4304	887.6
243.92	27.0038	889.5
244.6	23.0348	892.9
245.29	24.4518	895.3
245.88	26.526	898.0
246.53	27.5236	901.1
247.19	22.999	903.8
247.78	24.2102	906.0
248.34	20.3998	908.2
248.91	22.3534	910.3
249.48	23.0336	912.8
250.08	24.391	915.4
250.66	25.5424	918.1
251.21	27.5694	921.4
251.78	28.1212	923.8
252.34	20.119	926.5
252.93	23.1098	928.6
253.52	24.3238	931.1
254.09	25.906	932.7
254.69	25.4726	935.1
255.25	28.3566	937.8
255.8	26.4296	940.2
256.35	26.3434	942.5
256.89	25.3832	944.9
257.44	26.3202	947.3
258	26.0872	949.7
258.56	22.989	951.6
259.11	15.92	954.1
259.73	23.84	956.7
260.35	19.5048	959.8
261.03	19.188	963.4
261.71	25.0174	966.6
262.3	28.329	968.8
262.85	25.8582	971.1
263.4	29.062	973.5
263.95	26.1262	975.7
264.5	22.6448	978.0
265.1	25.1536	980.6
265.7	24.585	982.8
266.26	24.192	985.6
266.83	26.132	988.0
267.43	26.3908	990.6
268.09	24.723	993.8
268.78	21.964	996.8
269.4	22.9896	999.3
269.95	26.3866	1001.7
270.5	24.2378	1004.1
271.05	24.6118	1006.7
271.6	27.2604	1009.0
272.17	40.1952	1011.2
272.72	25.304	1013.2
273.27	21.1316	1015.4
273.82	24.0418	1017.7
274.38	26.1436	1020.5
274.97	25.1156	1022.9
275.55	27.5116	1025.8
276.11	24.483	1028.1
276.68	23.0844	1030.7
277.23	23.9116	1033.2
277.8	25.179	1035.8
278.38	24.0658	1038.5
278.94	26.8876	1041.3
279.57	28.3592	1044.3
280.21	26.9408	1047.2
280.8	24.8916	1049.8
281.36	25.8836	1052.1
281.91	32.0668	1054.5
282.46	26.272	1056.9
283.03	27.4276	1059.4
283.62	28.583	1061.7
284.19	24.968	1064.6
284.75	26.4284	1067.2
285.31	31.1758	1069.5
285.91	24.3918	1071.6
286.51	20.5112	1073.8
287.06	20.7448	1076.9
287.61	22.0746	1079.0
288.16	23.987	1081.8
288.71	21.154	1084.1
289.27	20.6548	1087.0
289.82	29.2128	1089.2
290.38	27.7904	1091.4
290.94	33.6592	1093.9
291.51	28.089	1096.3
292.07	23.8326	1098.5
292.62	26.613	1100.8
293.2	23.2742	1103.3
293.75	26.4622	1105.4
294.3	27.3474	1107.6
294.85	28.3598	1110.4
295.4	25.166	1112.9
295.95	23.081	1114.8
296.5	27.178	1117.5
297.06	23.861	1120.3
297.63	29.8564	1122.6
298.22	29.0036	1125.1
298.84	34.4128	1127.7
299.53	34.0042	1130.6
300.19	23.843	1132.9
300.79	28.3408	1135.4
301.64	31.91	1138.9
302.46	27.4334	1142.2
303.01	25.1636	1145.0
303.56	26.8836	1147.5
304.13	25.6342	1150.4
304.73	26.596	1152.7
305.31	26.2034	1155.2
305.87	26.8886	1157.7
306.46	27.0428	1159.8
307.15	20.3522	1163.0
307.81	19.9416	1165.5
308.35	23.913	1168.0
308.9	23.213	1170.2
309.45	20.8306	1172.6
310	25.8634	1175.5
310.56	26.0446	1178.1
311.11	26.6062	1180.3
311.67	25.6298	1182.9
312.22	28.477	1185.1
312.8	23.5102	1187.7
313.36	25.9088	1190.4
313.91	27.9242	1192.9
314.46	26.0332	1195.3
315.01	25.0794	1197.5
315.58	22.3414	1199.4
316.13	22.573	1201.8
316.68	24.572	1204.3
317.23	22.3944	1206.5
317.78	25.0814	1208.4
318.33	26.2674	1211.0
318.89	21.8874	1213.6
319.49	21.8124	1216.1
320.15	24.2596	1219.0
320.76	24.2336	1222.0
321.31	20.6816	1224.2
321.86	26.376	1226.8
322.41	24.0342	1229.3
322.98	26.6238	1232.0
323.54	25.9434	1234.6
324.11	25.2958	1237.6
324.66	26.672	1240.2
325.21	26.473	1242.9
325.79	25.7472	1246.0
326.37	23.6798	1248.5
326.94	30.1036	1250.9
327.52	29.3046	1253.5
328.11	27.0642	1256.1
328.66	27.1724	1258.3
329.21	21.2818	1261.1
329.78	26.584	1263.4
330.36	24.5494	1265.3
330.97	23.5628	1267.8
331.57	25.3966	1270.7
332.14	25.7608	1272.8
332.71	26.4372	1275.2
333.26	23.8028	1277.7
333.81	25.1796	1280.5
334.43	26.845	1283.4
335.13	28.695	1285.9
335.78	29.432	1289.1
336.33	28.4684	1291.4
336.89	30.8526	1294.0
337.44	33.4318	1296.0
337.99	27.345	1298.4
338.55	24.1108	1301.9
339.11	32.1898	1304.2
339.66	25.147	1307.0
340.22	33.3898	1309.3
340.81	26.1584	1311.3
341.36	29.756	1314.2
341.91	29.323	1316.6
342.46	22.637	1319.1
343.01	24.136	1321.6
343.56	22.4868	1323.9
344.11	21.988	1326.3
344.69	24.0198	1330.2
346.57	25.0286	1340.0
353.73	29.2952	1375.8
359.55	27.6456	1404.4
360.05	22.0892	1406.8
360.56	21.455	1409.1
361.11	24.3194	1411.8
361.65	22.6972	1414.3
362.15	31.923	1416.8
362.65	26.2942	1419.7
363.15	21.5948	1422.5
363.65	27.783	1425.0
364.15	32.1676	1426.7
364.67	27.48	1429.2
365.22	17.3034	1431.7
365.75	13.6698	1434.9
366.25	13.4786	1437.0
366.75	16.1806	1439.5
367.25	15.0172	1442.9
367.75	17.9432	1445.4
368.25	19.201	1447.9
368.78	17.4432	1450.9
369.33	17.301	1453.5
369.85	18.0848	1456.0
370.35	16.3566	1458.1
370.88	19.9944	1460.6
371.43	22.528	1463.5
371.95	24.401	1466.4
372.45	21.9232	1468.5
372.95	26.9184	1470.6
373.45	26.5832	1472.8
374	25.8034	1475.1
374.55	24.9118	1477.6
375.05	17.9826	1479.8
375.55	17.7302	1482.1
376.05	20.0454	1484.5
376.56	20.7424	1486.7
377.11	20.599	1489.6
377.65	19.5408	1492.0
378.15	24.4602	1494.1
378.65	19.7482	1496.6
379.15	19.6698	1498.9
379.65	21.4462	1501.3
380.15	20.8944	1503.5
380.67	22.526	1506.3
381.22	27.9572	1509.3
381.75	24.5316	1511.7
382.25	17.655	1514.3
382.75	22.2498	1516.4
383.25	15.714	1518.7
383.75	16.4074	1521.0
384.25	15.7624	1523.4
384.78	14.7956	1526.3
385.33	13.3014	1528.7
385.85	15.5684	1531.4
386.35	20.0244	1534.3
386.85	27.088	1536.4
387.35	26.6084	1539.2
389.05	21.664	1547.2
391.55	16.5848	1559.7
392.85	15.2212	1565.4
393.36	15.087	1567.4
395.51	19.9822	1578.0
397.65	16.9722	1588.2
398.15	17.5824	1590.4
398.65	17.9088	1593.6
399.15	17.4096	1596.5
399.67	18.345	1599.0
400.22	21.4072	1601.5
400.75	21.3048	1604.0
401.25	24.7742	1606.4
401.75	23.8096	1609.1
402.25	17.618	1612.2
402.75	21.1956	1614.3
403.25	25.1936	1616.2
403.75	25.2216	1618.7
404.25	24.4748	1621.0
404.78	19.672	1623.4
405.33	13.8872	1626.1
405.85	16.4816	1629.3
406.35	23.3688	1631.8
406.85	27.8036	1634.1
407.35	25.4312	1636.3
407.85	22.469	1638.5
408.35	24.1946	1641.8
408.89	35.9002	1644.5
409.44	23.6028	1647.4
409.95	20.3202	1650.0
410.45	17.6214	1652.8
410.95	22.4784	1655.4
411.45	21.6768	1658.2
411.95	24.3302	1660.5
412.45	22.7508	1662.9
413	22.3882	1665.5
413.55	20.109	1668.1
414.05	13.6056	1670.5
414.55	15.2062	1672.9
415.05	21.3448	1675.2
415.55	21.548	1677.7
416.05	20.3866	1679.8
416.56	23.8002	1682.9
417.11	23.6302	1686.0
417.65	22.0152	1688.7
418.15	15.8268	1691.0
418.65	19.3544	1693.4
419.15	25.452	1696.5
419.65	22.9028	1699.1
420.15	22.9184	1701.7
420.67	19.8568	1704.1
421.22	23.1172	1706.6
421.75	21.9628	1709.4
422.25	20.191	1712.0
422.79	22.8908	1714.5
423.34	31.802	1717.3
423.85	20.6448	1720.0
424.35	22.9548	1722.3
424.89	26.0622	1724.8
425.44	27.9874	1727.4
425.95	27.5364	1730.7
426.45	27.0686	1733.2
426.95	24.2614	1736.5
427.45	22.4642	1739.0
427.95	22.001	1741.1
428.45	26.0662	1743.2
429	24.5778	1745.8
429.55	22.6564	1748.4
430.05	19.8046	1751.4
430.55	22.506	1754.4
431.05	20.851	1756.7
431.55	23.2802	1759.6
432.05	23.1896	1762.3
432.56	19.4076	1765.1
433.11	20.2512	1768.5
433.65	19.3236	1771.3
434.15	22.2124	1774.4
434.65	21.7882	1777.5
435.15	23.4436	1780.9
435.65	26.3964	1782.8
436.15	19.854	1785.4
436.67	27.2314	1787.9
437.22	21.2014	1790.5
437.75	23.4118	1792.7
438.25	25.5618	1795.2
438.75	21.3066	1797.7
439.25	20.9826	1800.1
439.75	22.4272	1803.3
440.25	24.6034	1805.7
440.78	21.8192	1808.4
441.33	18.401	1810.7
441.85	16.6974	1813.2
442.35	15.4734	1815.5
442.89	18.8918	1818.2
443.44	16.7186	1820.8
443.95	15.9538	1822.7
444.45	21.964	1825.1
445	15.4954	1827.9
445.55	16.3146	1830.7
446.05	15.7784	1833.1
446.55	16.7596	1836.1
447.05	23.5628	1838.5
447.55	27.3126	1840.7
448.05	21.3114	1843.4
448.56	23.5958	1846.1
449.11	18.2354	1848.9
449.66	15.5662	1851.5
450.21	18.991	1854.2
450.75	19.0616	1856.6
451.25	22.7682	1859.3
451.75	24.7322	1862.7
452.25	24.1138	1865.1
452.75	24.045	1867.7
453.25	30.489	1869.5
453.8	32.171	1872.2
454.35	27.6482	1874.9
454.85	31.2614	1877.5
455.35	28.6348	1879.9
455.85	28.5554	1882.2
456.35	25.2922	1884.5
456.85	19.0638	1886.6
457.36	24.8408	1888.4
457.91	21.6054	1890.7
458.45	25.2764	1893.6
458.95	22.0686	1896.1
459.45	23.2702	1898.8
460.29	23.2246	1902.8
461.64	19.846	1908.7
462.65	20.3622	1912.9
463.15	19.5234	1914.9
463.65	21.6964	1917.8
464.18	24.4024	1920.7
464.73	20.507	1923.5
465.25	22.5922	1925.8
465.75	23.1832	1928.2
466.25	19.4994	1930.4
466.75	17.1374	1933.0
467.25	24.4856	1935.4
467.75	20.2478	1937.6
468.25	20.0186	1940.3
468.91	26.5434	1943.7
469.61	26.3948	1947.2
470.15	20.2828	1949.3
470.65	22.7982	1951.8
471.15	21.8126	1954.2
471.65	19.7228	1956.6
472.2	22.624	1959.2
472.78	24.4102	1961.8
473.43	22.2054	1964.9
474.05	16.9826	1968.4
474.55	23.4106	1970.7
475.05	24.5526	1972.8
476.36	20.3652	1979.6
478.21	14.6726	1988.8
479.25	17.9386	1993.2
479.75	16.0188	1995.5
480.25	21.161	1997.9
480.75	36.1688	2001.4
481.25	23.0542	2004.0
481.75	19.8446	2006.4
482.28	14.9214	2009.3
482.83	22.0084	2012.0
483.35	22.626	2015.6
483.85	14.8904	2018.1
484.35	17.0804	2020.6
484.85	20.6686	2023.3
485.35	19.256	2026.9
485.85	19.555	2029.5
486.35	19.35	2031.9
486.89	17.0942	2034.6
487.44	21.269	2037.2
487.95	22.1246	2039.5
488.45	23.2578	2041.7
488.95	28.3678	2044.1
489.45	27.5292	2046.7
489.95	28.4534	2050.0
490.45	24.8482	2052.7
491	26.0806	2055.5
491.55	22.7154	2058.1
492.05	19.4526	2060.4
492.55	21.4644	2062.6
493.05	26.9002	2065.1
493.55	17.391	2067.5
494.05	20.2032	2070.1
495.4	16.4296	2076.7
496.75	20.8908	2083.5
497.25	19.9102	2086.1
497.76	15.9576	2088.7
498.31	15.1342	2091.4
498.85	21.3146	2094.8
499.35	18.2932	2097.1
499.88	20.5292	2099.9
500.43	26.2444	2102.5
500.95	24.1918	2105.2
501.45	23.1276	2107.4
501.95	20.214	2110.0
502.45	24.9192	2112.5
502.95	19.0406	2115.0
503.45	18.3358	2118.1
503.95	19.3366	2120.6
504.61	23.796	2124.8
505.31	23.8632	2128.8
505.85	25.0112	2131.7
506.35	21.0214	2134.4
506.85	22.003	2137.3
507.4	24.6858	2140.1
507.95	21.3146	2143.1
508.45	29.2092	2145.5
508.95	30.2218	2148.2
509.45	23.5104	2150.7
510	22.4316	2153.5
510.55	22.8672	2156.0
511.06	27.3718	2158.7
511.61	25.3732	2161.8
512.15	23.4068	2164.3
512.65	29.3022	2166.7
513.15	27.1256	2169.2
513.65	24.0834	2171.8
514.15	27.575	2174.6
514.65	27.0588	2177.1
515.15	31.141	2179.8
515.65	28.499	2182.3
516.15	30.2342	2185.0
516.67	30.612	2187.5
517.22	24.5812	2190.4
517.75	24.8138	2193.2
518.25	17.8632	2195.5
518.79	21.14	2198.3
519.39	33.126	2200.7
519.95	29.8396	2203.5
520.45	24.6356	2206.0
520.95	19.6696	2209.0
521.45	23.4518	2211.5
521.95	26.4282	2214.1
522.45	28.7402	2216.5
523	30.5184	2219.1
523.55	25.5496	2221.8
524.05	26.8032	2224.2
524.55	31.432	2226.7
525.05	24.0894	2229.4
525.55	27.1596	2231.8
526.05	27.7766	2234.4
526.55	27.7994	2237.1
527.05	32.0398	2239.9
527.55	25.0852	2242.3
528.05	24.5502	2244.4
528.56	27.0338	2246.9
529.11	24.6022	2249.2
529.65	23.551	2252.2
